n Δx [mm] Δy [mm] φ [deg] R [mm] Δz [nm]
1 -0,15767 0,00464 -178,32 0,15773 -87,14
2 -0,00116 0,17274 -90,38 0,17274 -158,43
3 0,10318 -0,00116 0,64 0,10319 126,75
4 0,00232 0,14028 -89,05 0,14030 -75,25
5 -0,07651 -0,00812 173,95 0,07694 -63,37
6 0,00116 0,06260 -88,94 0,06261 -142,59
7 -0,09159 0,00116 -179,27 0,09159 -158,43
8 -0,00232 -0,07883 91,68 0,07887 27,73
9 -0,14607 0,00696 -177,27 0,14624 -158,43
10 -0,00348 0,05101 -93,90 0,05113 637,69
11 -0,11361 0,00348 -178,25 0,11367 -75,25
12 -0,00116 0,10666 -90,62 0,10666 -297,06
13 -0,06724 -0,00696 174,09 0,06760 -102,98
14 -0,00232 0,08811 -91,51 0,08814 -352,51
15 -0,06840 0,00232 -178,06 0,06844 -99,02
16 0,00348 0,08695 -87,71 0,08702 -142,59
17 -0,12984 0,01043 -175,41 0,13026 376,27
18 -0,00464 0,15303 -91,74 0,15310 -447,57
19 -0,07072 0,00116 -179,06 0,07073 -47,53
20 0,01507 0,10666 -81,96 0,10772 800,08
21 -0,06608 -0,00232 177,99 0,06612 -47,53
22 0,00927 0,06956 -82,41 0,07017 134,67
23 -0,12173 -0,00348 178,36 0,12178 -166,35
24 -0,00580 0,06956 -94,76 0,06980 7,92
25 0,00348 -0,07767 87,44 0,07775 -273,29
26 0,22954 0,00812 -2,02 0,22969 -217,84
27 -0,00927 -0,09854 95,38 0,09898 -43,57
28 0,09043 0,00000 0,00 0,09043 0,00
29 0,00464 -0,05565 85,24 0,05584 -75,25
30 0,12752 0,00000 0,00 0,12752 439,65
31 0,00000 -0,09390 90,00 0,09390 -75,25
32 0,07651 0,00812 -6,05 0,07694 71,29
33 0,00464 -0,15535 88,29 0,15542 -217,84
34 0,08115 0,00000 0,00 0,08115 178,24
35 -0,01971 -0,25389 94,44 0,25465 0,00
36 0,21679 0,01739 -4,59 0,21749 186,16
37 0,00580 0,09275 -86,42 0,09293 253,49
38 0,12868 0,00812 -3,61 0,12894 39,61
39 0,00116 0,06376 -88,96 0,06377 87,14
40 0,09390 0,01159 -7,04 0,09462 -154,47
41 -0,00232 -0,05333 92,49 0,05338 0,00
42 0,09854 -0,01391 8,04 0,09952 233,69
43 0,00232 -0,09390 88,59 0,09393 27,73
44 0,16114 -0,01391 4,93 0,16174 392,12
45 -0,00464 -0,05565 94,76 0,05584 146,55
46 0,07999 0,00696 -4,97 0,08029 -83,18
47 0,00116 -0,04753 88,60 0,04755 -198,04
48 0,07999 0,00696 -4,97 0,08029 -213,88
49 0,01739 -0,08811 78,84 0,08981 677,29
50 0,11709 -0,00464 2,27 0,11718 -213,88
51 -0,01507 -0,05797 104,57 0,05989 -43,57
52 -0,09043 0,01159 -172,69 0,09117 364,39
53 -0,00580 -0,16114 92,06 0,16125 -15,84
54 0,13100 0,00464 -2,03 0,13108 -855,53
55 0,00464 -0,09622 87,24 0,09633 -198,04
56 -0,04753 -0,00116 178,60 0,04755 -166,35
57 0,20056 -0,00348 0,99 0,20059 -71,29
58 -0,01739 -0,07651 102,80 0,07847 324,78
59 0,11941 -0,00812 3,89 0,11968 -102,98
60 -0,09390 0,00927 -174,36 0,09436 -170,31
61 0,00116 0,05797 -88,85 0,05798 -71,29
